# Tempo(s) E[W]
10.0 3.049911
20.0 4.765450
30.0 5.447390
40.0 6.542944
50.0 7.291203
60.0 8.172680
70.0 8.826153
80.0 9.443761
90.0 9.451118
100.0 10.147902
110.0 10.631221
120.0 11.579580
130.0 12.009141
140.0 12.524853
150.0 13.183831
160.0 14.207941
170.0 15.176307
180.0 15.804014
190.0 16.562436
200.0 17.373947
210.0 18.489853
220.0 19.455035
230.0 20.392062
240.0 21.598604
250.0 22.252716
260.0 23.016205
270.0 23.065314
280.0 23.652338
290.0 24.090984
300.0 24.489612
310.0 25.074007
320.0 25.440652
330.0 25.750235
340.0 26.114798
350.0 26.442130
360.0 26.482767
370.0 26.969253
380.0 27.247614
390.0 27.251894
400.0 27.776179
410.0 27.826706
420.0 28.186759
430.0 28.516966
440.0 29.006879
450.0 29.248352
460.0 29.405786
470.0 29.702298
480.0 29.793709
490.0 29.949705
500.0 30.085043
510.0 30.624226
520.0 30.715828
530.0 30.880809
540.0 31.156865
550.0 31.155638
560.0 31.327144
570.0 31.192144
580.0 31.166934
590.0 31.037618
600.0 30.988645
610.0 30.989796
620.0 30.985899
630.0 31.271147
640.0 31.276616
650.0 31.094203
660.0 31.103157
670.0 30.990320
680.0 31.055352
690.0 30.926065
700.0 30.786105
710.0 30.642324
720.0 30.543590
730.0 30.301141
740.0 30.300687
750.0 30.371130
760.0 30.399858
770.0 30.373500
780.0 30.051733
790.0 29.983203
800.0 29.719339
810.0 29.428288
820.0 29.378839
830.0 29.389143
840.0 29.317918
850.0 29.417394
860.0 29.462953
870.0 29.386765
880.0 29.163183
890.0 28.979251
900.0 28.514614
910.0 28.293011
920.0 28.126519
930.0 28.020603
940.0 27.957655
950.0 27.634883
960.0 27.599307
970.0 27.449643
980.0 27.168131
990.0 27.033577
1000.0 26.856032
1010.0 26.686477
1020.0 26.477063
1030.0 26.516532
1040.0 26.468017
1050.0 26.483862
1060.0 26.376188
1070.0 26.229785
1080.0 26.004297
1090.0 25.919651
1100.0 25.812786
1110.0 25.720909
1120.0 25.636124
1130.0 25.564008
1140.0 25.471532
1150.0 25.371243
1160.0 25.351244
1170.0 25.353723
1180.0 25.145962
1190.0 25.012352
1200.0 24.995217
1210.0 25.054854
1220.0 24.904738
1230.0 24.736079
1240.0 24.580325
1250.0 24.375454
1260.0 24.181154
1270.0 23.946931
1280.0 23.818218
1290.0 23.705024
1300.0 23.599513
1310.0 23.547277
1320.0 23.381914
1330.0 23.222450
1340.0 23.230099
1350.0 23.173101
1360.0 23.188540
1370.0 23.249057
1380.0 23.266502
1390.0 23.222398
1400.0 23.249296
1410.0 23.217646
1420.0 23.205528
1430.0 23.227517
1440.0 23.187224
1450.0 23.258233
1460.0 23.246833
1470.0 23.159011
1480.0 23.055061
1490.0 22.996017
1500.0 22.924168
1510.0 22.780080
1520.0 22.687886
1530.0 22.520637
1540.0 22.339800
1550.0 22.200714
1560.0 22.035147
1570.0 21.943015
1580.0 21.873579
1590.0 21.777165
1600.0 21.696222
1610.0 21.622370
1620.0 21.563212
1630.0 21.504975
1640.0 21.493512
1650.0 21.437516
1660.0 21.300259
1670.0 21.258383
1680.0 21.185109
1690.0 21.068641
1700.0 20.993077
1710.0 20.966937
1720.0 20.880892
1730.0 20.838867
1740.0 20.713544
1750.0 20.639790
1760.0 20.563323
1770.0 20.471792
1780.0 20.419184
1790.0 20.300401
1800.0 20.178753
1810.0 20.147645
1820.0 20.020686
1830.0 19.947520
1840.0 19.871926
1850.0 19.815866
1860.0 19.728971
1870.0 19.620848
1880.0 19.581958
1890.0 19.509176
1900.0 19.488659
1910.0 19.418196
1920.0 19.300013
1930.0 19.253802
1940.0 19.196292
1950.0 19.093979
1960.0 18.978594
1970.0 18.861174
1980.0 18.795883
1990.0 18.712525
2000.0 18.625803
2010.0 18.572998
2020.0 18.514621
2030.0 18.495796
2040.0 18.440462
2050.0 18.330803
2060.0 18.269546
2070.0 18.173361
2080.0 18.088063
2090.0 17.992810
2100.0 17.920009
2110.0 17.951578
2120.0 18.023797
2130.0 18.050549
2140.0 18.171187
2150.0 18.237446
2160.0 18.309777
2170.0 18.392207
2180.0 18.366247
2190.0 18.460081
2200.0 18.547230
2210.0 18.657551
2220.0 18.740526
2230.0 18.854724
2240.0 18.883554
2250.0 18.967234
2260.0 19.059016
2270.0 19.171827
2280.0 19.332257
2290.0 19.415138
2300.0 19.458988
2310.0 19.537938
2320.0 19.652970
2330.0 19.746327
2340.0 19.781598
2350.0 19.873680
2360.0 19.955825
2370.0 20.036271
2380.0 20.094089
2390.0 20.165397
2400.0 20.184125
2410.0 20.233975
2420.0 20.298446
2430.0 20.291614
2440.0 20.256473
2450.0 20.228196
2460.0 20.247931
2470.0 20.267453
2480.0 20.303415
2490.0 20.365184
2500.0 20.394221
2510.0 20.416352
2520.0 20.450827
2530.0 20.512746
2540.0 20.537906
2550.0 20.558555
2560.0 20.533324
2570.0 20.563319
2580.0 20.585113
2590.0 20.627302
2600.0 20.667422
2610.0 20.662893
2620.0 20.684054
2630.0 20.700614
2640.0 20.772387
2650.0 20.823943
2660.0 20.875067
2670.0 20.950300
2680.0 21.016755
2690.0 21.089862
2700.0 21.103555
2710.0 21.133258
2720.0 21.256097
2730.0 21.367808
2740.0 21.435089
2750.0 21.513416
2760.0 21.598408
2770.0 21.717556
2780.0 21.783265
2790.0 21.859710
2800.0 21.936101
2810.0 21.996748
2820.0 22.138704
2830.0 22.239664
2840.0 22.350912
2850.0 22.436649
2860.0 22.548604
2870.0 22.644743
2880.0 22.741178
2890.0 22.758251
2900.0 22.840572
2910.0 22.914620
2920.0 22.953504
2930.0 23.024333
2940.0 23.044575
2950.0 23.130109
2960.0 23.181519
2970.0 23.199030
2980.0 23.256458
2990.0 23.408554
3000.0 23.452790
3010.0 23.549415
3020.0 23.599760
3030.0 23.661342
3040.0 23.706364
3050.0 23.682836
3060.0 23.718870
3070.0 23.795532
3080.0 23.879968
3090.0 23.911909
3100.0 23.981593
3110.0 24.052413
3120.0 24.099687
3130.0 24.190455
3140.0 24.232945
3150.0 24.283153
3160.0 24.400385
3170.0 24.525679
3180.0 24.666405
3190.0 24.815643
3200.0 24.900615
3210.0 25.037907
3220.0 25.171299
3230.0 25.289335
3240.0 25.377528
3250.0 25.526128
3260.0 25.627788
3270.0 25.749089
3280.0 25.897602
3290.0 26.017680
3300.0 26.146462
3310.0 26.292199
3320.0 26.413278
3330.0 26.546232
3340.0 26.712183
3350.0 26.900580
3360.0 27.059852
3370.0 27.240875
3380.0 27.409188
3390.0 27.570871
3400.0 27.765235
3410.0 27.911303
3420.0 28.036706
3430.0 28.207655
3440.0 28.365721
3450.0 28.530514
3460.0 28.639335
3470.0 28.757259
3480.0 28.906832
3490.0 29.079415
3500.0 29.225552
3510.0 29.438724
3520.0 29.686574
3530.0 29.913833
3540.0 30.192300
3550.0 30.403271
3560.0 30.621016
3570.0 30.884455
3580.0 31.135636
3590.0 31.382576
3600.0 31.629125
3610.0 31.842906
3620.0 32.150106
3630.0 32.371652
3640.0 32.618667
3650.0 32.843316
3660.0 33.068465
3670.0 33.295000
3680.0 33.549388
3690.0 33.814224
3700.0 34.090035
3710.0 34.369648
3720.0 34.674678
3730.0 35.020886
3740.0 35.357114
3750.0 35.669205
3760.0 35.902272
3770.0 36.178840
3780.0 36.527050
3790.0 36.845204
3800.0 37.166882
3810.0 37.486649
3820.0 37.847617
3830.0 38.211342
3840.0 38.545747
3850.0 38.851487
3860.0 39.129303
3870.0 39.440029
3880.0 39.754765
3890.0 40.048514
3900.0 40.394143
3910.0 40.721351
3920.0 41.053032
3930.0 41.370580
3940.0 41.662378
3950.0 41.987253
3960.0 42.309227
3970.0 42.587573
3980.0 42.863593
3990.0 43.118861
4000.0 43.387848
4010.0 43.689541
4020.0 43.967274
4030.0 44.240914
4040.0 44.525451
4050.0 44.741871
4060.0 44.927735
4070.0 45.140348
4080.0 45.359503
4090.0 45.576434
4100.0 45.781675
4110.0 46.013289
4120.0 46.216888
4130.0 46.494743
4140.0 46.711846
4150.0 46.970723
4160.0 47.203437
4170.0 47.359868
4180.0 47.626210
4190.0 47.829613
4200.0 48.094683
4210.0 48.281266
4220.0 48.459858
4230.0 48.615962
4240.0 48.859228
4250.0 49.020745
4260.0 49.209880
4270.0 49.409429
4280.0 49.635205
4290.0 49.858441
4300.0 49.997660
4310.0 50.198539
4320.0 50.398391
4330.0 50.541422
4340.0 50.726367
4350.0 50.857821
4360.0 51.097228
4370.0 51.209640
4380.0 51.347128
4390.0 51.564609
4400.0 51.693058
4410.0 51.765436
4420.0 51.871264
4430.0 51.996477
4440.0 52.148395
4450.0 52.283151
4460.0 52.396785
4470.0 52.544778
4480.0 52.651881
4490.0 52.758396
4500.0 52.923743
4510.0 53.005936
4520.0 53.114532
4530.0 53.211085
4540.0 53.401223
4550.0 53.521701
4560.0 53.643280
4570.0 53.774286
4580.0 53.882097
4590.0 54.037019
4600.0 54.158236
4610.0 54.193943
4620.0 54.306096
4630.0 54.342131
4640.0 54.307696
4650.0 54.370841
4660.0 54.519580
4670.0 54.647408
4680.0 54.791786
4690.0 55.001640
4700.0 55.162669
4710.0 55.275274
4720.0 55.458479
4730.0 55.572300
4740.0 55.777615
4750.0 55.993558
4760.0 56.172201
4770.0 56.406293
4780.0 56.458787
4790.0 56.514653
4800.0 56.625857
4810.0 56.775789
4820.0 56.866434
4830.0 57.042397
4840.0 57.225040
4850.0 57.375771
4860.0 57.553621
4870.0 57.676549
4880.0 57.826151
4890.0 57.966131
4900.0 58.067073
4910.0 58.193350
4920.0 58.290679
4930.0 58.427185
4940.0 58.616130
4950.0 58.760960
4960.0 58.957063
4970.0 59.137478
4980.0 59.294920
4990.0 59.451742
5000.0 59.573253
5010.0 59.732777
5020.0 59.812895
5030.0 60.031252
5040.0 60.197998
5050.0 60.350324
5060.0 60.495573
5070.0 60.627774
5080.0 60.809237
5090.0 61.017793
5100.0 61.160654
5110.0 61.322255
5120.0 61.502886
5130.0 61.669698
5140.0 61.857077
5150.0 62.051852
5160.0 62.260556
5170.0 62.429666
5180.0 62.630174
5190.0 62.869050
5200.0 63.086465
5210.0 63.295866
5220.0 63.483351
5230.0 63.702499
5240.0 63.826467
5250.0 63.931373
5260.0 64.119169
5270.0 64.349726
5280.0 64.492737
5290.0 64.700046
5300.0 64.906807
5310.0 65.147031
5320.0 65.368729
5330.0 65.536111
5340.0 65.707776
5350.0 65.924018
5360.0 66.108890
5370.0 66.344425
5380.0 66.545045
5390.0 66.795747
5400.0 66.951138
5410.0 67.094823
5420.0 67.277833
5430.0 67.568247
5440.0 67.888858
5450.0 68.114037
5460.0 68.361776
5470.0 68.604907
5480.0 68.829560
5490.0 69.008511
5500.0 69.308670
5510.0 69.602488
5520.0 69.829294
5530.0 70.070762
5540.0 70.257034
5550.0 70.504501
5560.0 70.728652
5570.0 70.969683
5580.0 71.152518
5590.0 71.363539
5600.0 71.555310
5610.0 71.736809
5620.0 71.895912
5630.0 72.035601
5640.0 72.244262
5650.0 72.383995
5660.0 72.486245
5670.0 72.640975
5680.0 72.764897
5690.0 72.898556
5700.0 73.071866
5710.0 73.262330
5720.0 73.433364
5730.0 73.664118
5740.0 73.797774
5750.0 73.993753
5760.0 74.149230
5770.0 74.371287
5780.0 74.479651
5790.0 74.553968
5800.0 74.700733
5810.0 74.802984
5820.0 74.911441
5830.0 75.064242
5840.0 75.153573
5850.0 75.309412
5860.0 75.457253
5870.0 75.630497
5880.0 75.725151
5890.0 75.910227
5900.0 76.066181
5910.0 76.213802
5920.0 76.382706
5930.0 76.530431
5940.0 76.547757
5950.0 76.617861
5960.0 76.789174
5970.0 76.966026
5980.0 77.138348
5990.0 77.234744
6000.0 77.337520
6010.0 77.469889
6020.0 77.619859
6030.0 77.699449
6040.0 77.791653
6050.0 77.911437
6060.0 78.017531
6070.0 78.078480
6080.0 78.266294
6090.0 78.363540
6100.0 78.567700
6110.0 78.608412
6120.0 78.692496
6130.0 78.786760
6140.0 78.997076
6150.0 79.125877
6160.0 79.291578
6170.0 79.438066
6180.0 79.636012
6190.0 79.819832
6200.0 79.986772
6210.0 80.150996
6220.0 80.356432
6230.0 80.526937
6240.0 80.693769
6250.0 80.884091
6260.0 80.998325
6270.0 81.170577
6280.0 81.339172
6290.0 81.370501
6300.0 81.534328
6310.0 81.651964
6320.0 81.808423
6330.0 81.956260
6340.0 82.122382
6350.0 82.314368
6360.0 82.457332
6370.0 82.604636
6380.0 82.752415
6390.0 82.921496
6400.0 83.084475
6410.0 83.331933
6420.0 83.492626
6430.0 83.702698
6440.0 83.828989
6450.0 83.995216
6460.0 84.234139
6470.0 84.412266
6480.0 84.591275
6490.0 84.798355
6500.0 85.030653
6510.0 85.243615
6520.0 85.389750
6530.0 85.615625
6540.0 85.802379
6550.0 85.956500
6560.0 86.124174
6570.0 86.338974
6580.0 86.532576
6590.0 86.647604
6600.0 86.765054
6610.0 86.922689
6620.0 87.030585
6630.0 87.266138
6640.0 87.431114
6650.0 87.613803
6660.0 87.780064
6670.0 88.000401
6680.0 88.113122
6690.0 88.251521
6700.0 88.445482
6710.0 88.588619
6720.0 88.742775
6730.0 88.869029
6740.0 89.006082
6750.0 89.132045
6760.0 89.229630
6770.0 89.292400
6780.0 89.430722
6790.0 89.552704
6800.0 89.668439
6810.0 89.677516
6820.0 89.774619
6830.0 89.812879
6840.0 89.906258
6850.0 90.016614
6860.0 90.145345
6870.0 90.272555
6880.0 90.359455
6890.0 90.404589
6900.0 90.539971
6910.0 90.687822
6920.0 90.773865
6930.0 90.746940
6940.0 90.892538
6950.0 91.020155
6960.0 91.125033
6970.0 91.196294
6980.0 91.228688
6990.0 91.288065
7000.0 91.348139
7010.0 91.356216
7020.0 91.394750
7030.0 91.466148
7040.0 91.466109
7050.0 91.548995
7060.0 91.632993
7070.0 91.676211
7080.0 91.780755
7090.0 91.839526
7100.0 91.891741
7110.0 91.894054
7120.0 91.951845
7130.0 91.983211
7140.0 92.038525
7150.0 92.044846
7160.0 92.136525
7170.0 92.246571
7180.0 92.300644
7190.0 92.400133
7200.0 92.432828
7210.0 92.492320
7220.0 92.548765
7230.0 92.607580
7240.0 92.563601
7250.0 92.640487
7260.0 92.718146
7270.0 92.740604
7280.0 92.782109
7290.0 92.838841
7300.0 92.905906
7310.0 92.961560
7320.0 93.062878
7330.0 93.160172
7340.0 93.219035
7350.0 93.212950
7360.0 93.268476
7370.0 93.260649
7380.0 93.299619
7390.0 93.337574
7400.0 93.322893
7410.0 93.325494
7420.0 93.288378
7430.0 93.309631
7440.0 93.334165
7450.0 93.304364
7460.0 93.388878
7470.0 93.438018
7480.0 93.496449
7490.0 93.487708
7500.0 93.616231
7510.0 93.687128
7520.0 93.754352
7530.0 93.749680
7540.0 93.810126
7550.0 93.912664
7560.0 93.956138
7570.0 94.039695
7580.0 94.088369
7590.0 94.137106
7600.0 94.138623
7610.0 94.153317
7620.0 94.230616
7630.0 94.222449
7640.0 94.294735
7650.0 94.340565
7660.0 94.363668
7670.0 94.393820
7680.0 94.377471
7690.0 94.484076
7700.0 94.555800
7710.0 94.566318
7720.0 94.584425
7730.0 94.640576
7740.0 94.674346
7750.0 94.766209
7760.0 94.797351
7770.0 94.873317
7780.0 94.885717
7790.0 94.882829
7800.0 94.873906
7810.0 94.862552
7820.0 94.886654
7830.0 94.937327
7840.0 95.001054
7850.0 95.051065
7860.0 95.148439
7870.0 95.287120
7880.0 95.319345
7890.0 95.331317
7900.0 95.404209
7910.0 95.474614
7920.0 95.552442
7930.0 95.623152
7940.0 95.697650
7950.0 95.729822
7960.0 95.747959
7970.0 95.756339
7980.0 95.751832
7990.0 95.816926
8000.0 95.775679
8010.0 95.749483
8020.0 95.785516
8030.0 95.848242
8040.0 95.890660
8050.0 95.901807
8060.0 95.801889
8070.0 95.817791
8080.0 95.789355
8090.0 95.827563
8100.0 95.807525
8110.0 95.780199
8120.0 95.742846
8130.0 95.786462
8140.0 95.799626
8150.0 95.753258
8160.0 95.755397
8170.0 95.836576
8180.0 95.824696
8190.0 95.844045
8200.0 95.852958
8210.0 95.863131
8220.0 95.882513
8230.0 95.916418
8240.0 95.893971
8250.0 95.885319
8260.0 95.893187
8270.0 95.940915
8280.0 95.912683
8290.0 95.832957
8300.0 95.854859
8310.0 95.856577
8320.0 95.848783
8330.0 95.854860
8340.0 95.831246
8350.0 95.809638
8360.0 95.814892
8370.0 95.815632
8380.0 95.862633
8390.0 95.814041
8400.0 95.880714
8410.0 95.940955
8420.0 95.950712
8430.0 95.944625
8440.0 95.966176
8450.0 95.967347
8460.0 95.908696
8470.0 95.869840
8480.0 95.855913
8490.0 95.812108
8500.0 95.767405
8510.0 95.734718
8520.0 95.694802
8530.0 95.686351
8540.0 95.644040
8550.0 95.608724
8560.0 95.604413
8570.0 95.575551
8580.0 95.559177
8590.0 95.530887
8600.0 95.508442
8610.0 95.470055
8620.0 95.503314
8630.0 95.468160
8640.0 95.412195
8650.0 95.370319
8660.0 95.343890
8670.0 95.324255
8680.0 95.303314
8690.0 95.289643
8700.0 95.259848
8710.0 95.214008
8720.0 95.136134
8730.0 95.048144
8740.0 94.944719
8750.0 94.927399
8760.0 94.911562
8770.0 94.837287
8780.0 94.735950
8790.0 94.720395
8800.0 94.656156
8810.0 94.572300
8820.0 94.464073
8830.0 94.429801
8840.0 94.361029
8850.0 94.298017
8860.0 94.164822
8870.0 94.061239
8880.0 93.901756
8890.0 93.821331
8900.0 93.704222
8910.0 93.627145
8920.0 93.557812
8930.0 93.494310
8940.0 93.430100
8950.0 93.358780
8960.0 93.314611
8970.0 93.163340
8980.0 93.051231
8990.0 92.991802
9000.0 92.902944
9010.0 92.848710
9020.0 92.761504
9030.0 92.733074
9040.0 92.620196
9050.0 92.518429
9060.0 92.397922
9070.0 92.244208
9080.0 92.132431
9090.0 92.041659
9100.0 91.917723
9110.0 91.845884
9120.0 91.775749
9130.0 91.733416
9140.0 91.638871
9150.0 91.530241
9160.0 91.433009
9170.0 91.352201
9180.0 91.293991
9190.0 91.270867
9200.0 91.205075
9210.0 91.106326
9220.0 91.040966
9230.0 90.918131
9240.0 90.866953
9250.0 90.815779
9260.0 90.774313
9270.0 90.650057
9280.0 90.596238
9290.0 90.514640
9300.0 90.444960
9310.0 90.428665
9320.0 90.316363
9330.0 90.222534
9340.0 90.142261
9350.0 90.123066
9360.0 90.028445
9370.0 89.930937
9380.0 89.876094
9390.0 89.780072
9400.0 89.693186
9410.0 89.590157
9420.0 89.516587
9430.0 89.397720
9440.0 89.323699
9450.0 89.232093
9460.0 89.096458
9470.0 89.037681
9480.0 88.961895
9490.0 88.939067
9500.0 88.876418
9510.0 88.748709
9520.0 88.662294
9530.0 88.564849
9540.0 88.456627
9550.0 88.389411
9560.0 88.378136
9570.0 88.328980
9580.0 88.263289
9590.0 88.188041
9600.0 88.116741
9610.0 88.065383
9620.0 88.045917
9630.0 87.984846
9640.0 87.931376
9650.0 87.850239
9660.0 87.793970
9670.0 87.700199
9680.0 87.666010
9690.0 87.600740
9700.0 87.529432
9710.0 87.453433
9720.0 87.416402
9730.0 87.275637
9740.0 87.208681
9750.0 87.125103
9760.0 87.122777
9770.0 87.080302
9780.0 87.034660
9790.0 86.895521
9800.0 86.821158
9810.0 86.778401
9820.0 86.751435
9830.0 86.648785
9840.0 86.608691
9850.0 86.590465
9860.0 86.505876
9870.0 86.481926
9880.0 86.399040
9890.0 86.341330
9900.0 86.242411
9910.0 86.198751
9920.0 86.145508
9930.0 86.092561
9940.0 86.068863
9950.0 86.015999
9960.0 85.931098
9970.0 85.859617
9980.0 85.800481
9990.0 85.761049
10000.0 85.675218
10010.0 85.662241
10020.0 85.651788
10030.0 85.611172
10040.0 85.564513
10050.0 85.533767
10060.0 85.546492
10070.0 85.547046
10080.0 85.535819
10090.0 85.484200
10100.0 85.448478
10110.0 85.392806
10120.0 85.362622
10130.0 85.343201
10140.0 85.329402
10150.0 85.324368
10160.0 85.278823
10170.0 85.228620
10180.0 85.150400
10190.0 85.137801
10200.0 85.142875
10210.0 85.106644
10220.0 85.083920
10230.0 85.090094
10240.0 85.020133
10250.0 84.994469
10260.0 85.012851
10270.0 84.996126
10280.0 84.977116
10290.0 85.005796
10300.0 84.957164
10310.0 84.918599
10320.0 84.916825
10330.0 84.896059
10340.0 84.905850
10350.0 84.799480
10360.0 84.789235
10370.0 84.746460
10380.0 84.691934
10390.0 84.677469
10400.0 84.631838
10410.0 84.563464
10420.0 84.517867
10430.0 84.518073
10440.0 84.493535
10450.0 84.507321
10460.0 84.510077
10470.0 84.457171
10480.0 84.459562
10490.0 84.447858
10500.0 84.374703
10510.0 84.348105
10520.0 84.308776
10530.0 84.273957
10540.0 84.221854
10550.0 84.207925
10560.0 84.216603
10570.0 84.174879
10580.0 84.144917
10590.0 84.087544
10600.0 84.051626
10610.0 84.007462
10620.0 83.978753
10630.0 83.955823
10640.0 83.944393
10650.0 83.876321
10660.0 83.794592
10670.0 83.706393
10680.0 83.655195
10690.0 83.630124
10700.0 83.609311
10710.0 83.546293
10720.0 83.482797
10730.0 83.398863
10740.0 83.317827
10750.0 83.257887
10760.0 83.242319
10770.0 83.173922
10780.0 83.170440
10790.0 83.143066
10800.0 83.106320
10810.0 83.047051
10820.0 82.995510
10830.0 82.948605
10840.0 82.918228
10850.0 82.909006
10860.0 82.853754
10870.0 82.810970
10880.0 82.741467
10890.0 82.649664
10900.0 82.595727
10910.0 82.588366
10920.0 82.567894
10930.0 82.546542
10940.0 82.535444
10950.0 82.525474
10960.0 82.532501
10970.0 82.529313
10980.0 82.495028
10990.0 82.450300
11000.0 82.384027
11010.0 82.311141
11020.0 82.298324
11030.0 82.198267
11040.0 82.123686
11050.0 82.059841
11060.0 81.990699
11070.0 81.968826
11080.0 81.937351
11090.0 81.897023
11100.0 81.841473
11110.0 81.761577
11120.0 81.702711
11130.0 81.611985
11140.0 81.568173
11150.0 81.509269
11160.0 81.442064
11170.0 81.399081
11180.0 81.348779
11190.0 81.285461
11200.0 81.265174
11210.0 81.249528
11220.0 81.176141
11230.0 81.123388
11240.0 81.048447
11250.0 81.012976
11260.0 80.958231
11270.0 80.963221
11280.0 80.868809
11290.0 80.835434
11300.0 80.800651
11310.0 80.789835
11320.0 80.755431
11330.0 80.691936
11340.0 80.705442
11350.0 80.717185
11360.0 80.747354
11370.0 80.751898
11380.0 80.769550
11390.0 80.770501
11400.0 80.728847
11410.0 80.746808
11420.0 80.760218
11430.0 80.791476
11440.0 80.792982
11450.0 80.819928
11460.0 80.815355
11470.0 80.818330
11480.0 80.822281
11490.0 80.838468
11500.0 80.823236
11510.0 80.843515
11520.0 80.830731
11530.0 80.789350
11540.0 80.779379
11550.0 80.780867
11560.0 80.747999
11570.0 80.759383
11580.0 80.776793
11590.0 80.760384
11600.0 80.747636
11610.0 80.773352
11620.0 80.784453
11630.0 80.775181
11640.0 80.778714
11650.0 80.791672
11660.0 80.797370
11670.0 80.802852
11680.0 80.807902
11690.0 80.800671
11700.0 80.808865
11710.0 80.781023
11720.0 80.786306
